basic methyl red
1/1/2006 12:59:45 PM
Wavelength (nm),Absorbance
850.00,0.001229
849.00,-0.000475
848.00,0.000616
847.00,-0.000577
846.00,-0.000690
845.00,-0.000558
844.00,-0.000196
843.00,-0.001194
842.00,-0.000611
841.00,-0.000301
840.00,-0.000376
839.00,-0.001071
838.00,-0.000317
837.00,-0.001016
836.00,0.000060
835.00,-0.000254
834.00,0.000020
833.00,-0.000703
832.00,0.000177
831.00,0.000315
830.00,0.000338
829.00,-0.000055
828.00,0.000049
827.00,-0.000011
826.00,-0.000083
825.00,-0.000246
824.00,0.000042
823.00,-0.000185
822.00,-0.000395
821.00,0.000079
820.00,0.000749
819.00,0.000096
818.00,0.000742
817.00,-0.000287
816.00,0.001065
815.00,0.000182
814.00,-0.000038
813.00,0.002331
812.00,-0.000046
811.00,-0.000248
810.00,0.000846
809.00,-0.000157
808.00,0.000798
807.00,0.000012
806.00,0.000114
805.00,0.000802
804.00,0.000617
803.00,0.000493
802.00,0.001116
801.00,-0.000766
800.00,0.001018
799.00,-0.000161
798.00,0.000574
797.00,0.000037
796.00,-0.000067
795.00,-0.000695
794.00,0.001300
793.00,0.000440
792.00,0.001070
791.00,0.000303
790.00,0.000256
789.00,0.000843
788.00,0.000452
787.00,0.000385
786.00,0.000187
785.00,0.000475
784.00,-0.001222
783.00,-0.000262
782.00,-0.000568
781.00,-0.000411
780.00,-0.000525
779.00,-0.001204
778.00,-0.001228
777.00,0.000547
776.00,0.000079
775.00,-0.000196
774.00,0.000610
773.00,-0.000623
772.00,-0.000597
771.00,-0.000563
770.00,0.000061
769.00,-0.000797
768.00,-0.001937
767.00,0.000165
766.00,-0.000208
765.00,-0.000419
764.00,-0.000014
763.00,-0.000518
762.00,-0.000515
761.00,-0.000473
760.00,-0.000309
759.00,-0.000104
758.00,0.000078
757.00,-0.000421
756.00,-0.000441
755.00,0.000293
754.00,-0.000387
753.00,-0.000044
752.00,-0.000924
751.00,-0.000142
750.00,-0.000163
749.00,-0.000185
748.00,0.000581
747.00,-0.000077
746.00,0.000218
745.00,0.000337
744.00,-0.000088
743.00,-0.000113
742.00,0.000333
741.00,0.000213
740.00,0.000222
739.00,0.000307
738.00,-0.000632
737.00,0.000245
736.00,-0.000209
735.00,-0.000177
734.00,-0.000260
733.00,0.000053
732.00,0.000050
731.00,0.000063
730.00,-0.000058
729.00,-0.000195
728.00,0.000362
727.00,-0.000083
726.00,0.000392
725.00,-0.000193
724.00,-0.000672
723.00,-0.000327
722.00,0.000541
721.00,0.000179
720.00,-0.000159
719.00,-0.000260
718.00,0.000226
717.00,0.000591
716.00,0.000014
715.00,-0.000212
714.00,0.000282
713.00,0.000411
712.00,0.000079
711.00,0.000253
710.00,0.000277
709.00,-0.000399
708.00,0.000078
707.00,0.000677
706.00,-0.000105
705.00,-0.000044
704.00,-0.000241
703.00,-0.000053
702.00,-0.000067
701.00,0.000108
700.00,-0.000015
699.00,-0.000068
698.00,0.000024
697.00,-0.000378
696.00,-0.000012
695.00,0.000213
694.00,0.000182
693.00,-0.000048
692.00,0.000340
691.00,-0.000502
690.00,-0.000421
689.00,0.000226
688.00,0.000302
687.00,0.000139
686.00,0.000101
685.00,0.000138
684.00,0.000376
683.00,0.000003
682.00,0.000237
681.00,0.000051
680.00,0.000012
679.00,-0.000254
678.00,0.000106
677.00,0.000247
676.00,-0.000107
675.00,0.000194
674.00,0.000027
673.00,-0.000188
672.00,0.000108
671.00,0.000235
670.00,0.000032
669.00,0.000158
668.00,0.000354
667.00,-0.000248
666.00,-0.000187
665.00,0.000181
664.00,0.000233
663.00,0.000139
662.00,-0.000172
661.00,0.000046
660.00,-0.000020
659.00,-0.000104
658.00,0.000536
657.00,0.000177
656.00,-0.000175
655.00,-0.000539
654.00,-0.000447
653.00,0.000085
652.00,0.000075
651.00,0.000122
650.00,0.000250
649.00,0.000305
648.00,0.001087
647.00,0.000178
646.00,0.000436
645.00,0.000342
644.00,-0.000090
643.00,-0.000094
642.00,0.000459
641.00,0.000102
640.00,0.000227
639.00,0.000557
638.00,0.000605
637.00,0.000445
636.00,0.000347
635.00,0.000312
634.00,-0.000101
633.00,0.000439
632.00,0.000408
631.00,0.000499
630.00,0.000980
629.00,0.000321
628.00,0.000142
627.00,0.000493
626.00,0.000707
625.00,0.000767
624.00,0.000521
623.00,0.000636
622.00,0.000615
621.00,0.000849
620.00,0.000670
619.00,0.000863
618.00,0.000654
617.00,0.000684
616.00,0.001024
615.00,0.001014
614.00,0.000696
613.00,0.001205
612.00,0.001300
611.00,0.000943
610.00,0.001251
609.00,0.001303
608.00,0.001258
607.00,0.001254
606.00,0.001531
605.00,0.001490
604.00,0.001659
603.00,0.001615
602.00,0.001396
601.00,0.001806
600.00,0.002070
599.00,0.001937
598.00,0.002040
597.00,0.002178
596.00,0.002204
595.00,0.002144
594.00,0.002564
593.00,0.002570
592.00,0.002535
591.00,0.002882
590.00,0.003379
589.00,0.003343
588.00,0.003364
587.00,0.003960
586.00,0.003906
585.00,0.004403
584.00,0.004729
583.00,0.005201
582.00,0.005251
581.00,0.005415
580.00,0.005623
579.00,0.006218
578.00,0.006705
577.00,0.007125
576.00,0.007504
575.00,0.008114
574.00,0.008166
573.00,0.009125
572.00,0.009273
571.00,0.009604
570.00,0.010201
569.00,0.010684
568.00,0.010924
567.00,0.011741
566.00,0.012076
565.00,0.012368
564.00,0.013027
563.00,0.013288
562.00,0.014005
561.00,0.014242
560.00,0.014217
559.00,0.014694
558.00,0.015030
557.00,0.015261
556.00,0.015621
555.00,0.015689
554.00,0.016019
553.00,0.016080
552.00,0.016482
551.00,0.016590
550.00,0.016852
549.00,0.017106
548.00,0.017337
547.00,0.017249
546.00,0.017746
545.00,0.017984
544.00,0.018120
543.00,0.018272
542.00,0.018566
541.00,0.018745
540.00,0.019038
539.00,0.019430
538.00,0.020040
537.00,0.020484
536.00,0.020719
535.00,0.021213
534.00,0.021676
533.00,0.022244
532.00,0.022823
531.00,0.023471
530.00,0.024292
529.00,0.024828
528.00,0.025700
527.00,0.026467
526.00,0.027280
525.00,0.028081
524.00,0.029230
523.00,0.030258
522.00,0.031262
521.00,0.032561
520.00,0.033543
519.00,0.035064
518.00,0.036385
517.00,0.037828
516.00,0.039150
515.00,0.040737
514.00,0.042537
513.00,0.043809
512.00,0.045696
511.00,0.047805
510.00,0.049661
509.00,0.051961
508.00,0.053987
507.00,0.056091
506.00,0.058852
505.00,0.061279
504.00,0.063625
503.00,0.066460
502.00,0.069153
501.00,0.072119
500.00,0.075225
499.00,0.078416
498.00,0.081565
497.00,0.084624
496.00,0.088074
495.00,0.091720
494.00,0.095507
493.00,0.099042
492.00,0.102561
491.00,0.105887
490.00,0.109951
489.00,0.114048
488.00,0.118004
487.00,0.121698
486.00,0.125789
485.00,0.129672
484.00,0.133687
483.00,0.137906
482.00,0.141863
481.00,0.146100
480.00,0.149910
479.00,0.153752
478.00,0.157832
477.00,0.161976
476.00,0.165773
475.00,0.169736
474.00,0.173393
473.00,0.176990
472.00,0.181116
471.00,0.184572
470.00,0.188034
469.00,0.191376
468.00,0.194575
467.00,0.197830
466.00,0.201053
465.00,0.204264
464.00,0.207118
463.00,0.209872
462.00,0.212693
461.00,0.215233
460.00,0.217778
459.00,0.220156
458.00,0.222311
457.00,0.224299
456.00,0.226123
455.00,0.228173
454.00,0.230118
453.00,0.231728
452.00,0.233378
451.00,0.234663
450.00,0.235954
449.00,0.237393
448.00,0.238375
447.00,0.239434
446.00,0.240301
445.00,0.241175
444.00,0.241909
443.00,0.242720
442.00,0.243280
441.00,0.243700
440.00,0.244244
439.00,0.244612
438.00,0.245024
437.00,0.245469
436.00,0.245687
435.00,0.245869
434.00,0.245980
433.00,0.246068
432.00,0.246035
431.00,0.246080
430.00,0.246114
429.00,0.245942
428.00,0.245713
427.00,0.245701
426.00,0.245462
425.00,0.245329
424.00,0.245010
423.00,0.244710
422.00,0.244516
421.00,0.244129
420.00,0.243553
419.00,0.243143
418.00,0.242669
417.00,0.241780
416.00,0.241178
415.00,0.240578
414.00,0.239508
413.00,0.238625
412.00,0.237781
411.00,0.236765
410.00,0.235807
409.00,0.234577
408.00,0.233201
407.00,0.231927
406.00,0.230646
405.00,0.229280
404.00,0.227575
403.00,0.225675
402.00,0.224099
401.00,0.222421
400.00,0.220722
399.00,0.218712
398.00,0.216492
397.00,0.214334
396.00,0.211900
395.00,0.209581
394.00,0.207337
393.00,0.204830
392.00,0.202234
391.00,0.199418
390.00,0.196304
389.00,0.193773
388.00,0.190816
387.00,0.187957
386.00,0.184501
385.00,0.181349
384.00,0.178415
383.00,0.175414
382.00,0.172473
381.00,0.169004
380.00,0.165355
379.00,0.161789
378.00,0.158569
377.00,0.155250
376.00,0.151852
375.00,0.148550
374.00,0.145151
373.00,0.141600
372.00,0.138129
371.00,0.134840
370.00,0.131328
369.00,0.127902
368.00,0.124337
367.00,0.121275
366.00,0.118048
365.00,0.114515
364.00,0.111805
363.00,0.108227
362.00,0.105166
361.00,0.101852
360.00,0.099066
359.00,0.095957
358.00,0.093036
357.00,0.090137
356.00,0.087016
355.00,0.084277
354.00,0.081675
353.00,0.079272
352.00,0.076699
351.00,0.073802
350.00,0.071516


basic methyl red
1/1/2006 1:04:08 PM
Wavelength (nm),Absorbance
850.00,-0.000511
849.00,-0.000761
848.00,-0.001505
847.00,-0.000352
846.00,-0.001365
845.00,-0.002109
844.00,-0.000301
843.00,-0.001109
842.00,-0.000912
841.00,-0.001588
840.00,-0.001055
839.00,-0.001715
838.00,-0.001134
837.00,-0.001641
836.00,-0.000938
835.00,-0.000972
834.00,-0.000505
833.00,-0.001391
832.00,-0.000881
831.00,-0.000115
830.00,-0.000765
829.00,-0.000654
828.00,-0.000661
827.00,-0.001048
826.00,-0.001122
825.00,-0.000851
824.00,-0.000409
823.00,-0.001005
822.00,-0.000974
821.00,-0.001221
820.00,-0.000454
819.00,-0.000328
818.00,-0.000167
817.00,-0.000961
816.00,-0.000299
815.00,-0.001193
814.00,-0.000729
813.00,-0.000233
812.00,-0.000668
811.00,-0.000878
810.00,-0.000159
809.00,-0.000742
808.00,0.000282
807.00,-0.000268
806.00,-0.000935
805.00,-0.000919
804.00,0.000707
803.00,0.000532
802.00,0.000410
801.00,-0.000149
800.00,0.000183
799.00,-0.001189
798.00,-0.000668
797.00,-0.000497
796.00,-0.000324
795.00,-0.001274
794.00,0.000475
793.00,-0.000245
792.00,0.000099
791.00,-0.000001
790.00,0.000644
789.00,0.000413
788.00,0.000313
787.00,-0.000267
786.00,-0.001347
785.00,0.000270
784.00,-0.001464
783.00,-0.000149
782.00,-0.000612
781.00,0.000138
780.00,-0.000924
779.00,-0.000952
778.00,-0.000589
777.00,0.000743
776.00,0.000060
775.00,-0.000083
774.00,-0.000313
773.00,-0.000501
772.00,-0.001339
771.00,-0.000703
770.00,0.000751
769.00,0.000168
768.00,-0.001120
767.00,-0.000426
766.00,-0.000823
765.00,-0.000420
764.00,-0.000385
763.00,-0.000677
762.00,-0.000909
761.00,-0.000800
760.00,-0.000280
759.00,-0.000280
758.00,-0.000164
757.00,-0.000417
756.00,-0.000756
755.00,-0.000395
754.00,-0.000583
753.00,-0.000543
752.00,-0.000272
751.00,-0.000777
750.00,-0.000876
749.00,-0.000491
748.00,-0.000473
747.00,-0.000232
746.00,-0.000252
745.00,0.000028
744.00,-0.000487
743.00,-0.000100
742.00,-0.000910
741.00,-0.000818
740.00,-0.000513
739.00,0.000140
738.00,-0.000563
737.00,-0.001032
736.00,-0.000415
735.00,-0.000544
734.00,-0.000955
733.00,-0.000117
732.00,-0.000592
731.00,-0.000892
730.00,-0.000188
729.00,-0.000768
728.00,0.000608
727.00,-0.000924
726.00,-0.000790
725.00,0.000070
724.00,-0.000034
723.00,-0.000362
722.00,-0.000359
721.00,0.000202
720.00,-0.000246
719.00,-0.000256
718.00,0.000005
717.00,-0.000339
716.00,0.000283
715.00,-0.000229
714.00,-0.000352
713.00,-0.000030
712.00,0.000393
711.00,-0.000148
710.00,0.000298
709.00,-0.000293
708.00,0.000121
707.00,0.000301
706.00,-0.000281
705.00,-0.000362
704.00,-0.000438
703.00,-0.000313
702.00,-0.000417
701.00,-0.000076
700.00,-0.000108
699.00,-0.000145
698.00,-0.000060
697.00,-0.000323
696.00,-0.000044
695.00,-0.000286
694.00,-0.000007
693.00,-0.000191
692.00,0.000172
691.00,-0.000122
690.00,0.000122
689.00,0.000029
688.00,0.000393
687.00,0.000207
686.00,0.000029
685.00,-0.000321
684.00,0.000099
683.00,0.000071
682.00,-0.000119
681.00,-0.000005
680.00,-0.000171
679.00,0.000012
678.00,-0.000116
677.00,0.000114
676.00,-0.000119
675.00,0.000174
674.00,0.000192
673.00,-0.000007
672.00,-0.000057
671.00,0.000235
670.00,0.000321
669.00,0.000145
668.00,-0.000168
667.00,0.000633
666.00,0.000161
665.00,0.000544
664.00,-0.000001
663.00,0.000569
662.00,0.000246
661.00,0.000184
660.00,0.000082
659.00,0.000129
658.00,0.000353
657.00,0.000093
656.00,-0.000134
655.00,0.000049
654.00,-0.000203
653.00,0.000599
652.00,-0.000089
651.00,-0.000353
650.00,0.000068
649.00,0.000372
648.00,0.000613
647.00,0.000110
646.00,0.000318
645.00,0.000464
644.00,-0.000299
643.00,0.000365
642.00,0.000284
641.00,0.000456
640.00,0.000561
639.00,0.000749
638.00,0.000643
637.00,0.000269
636.00,-0.000153
635.00,0.000299
634.00,0.000095
633.00,0.000761
632.00,0.000573
631.00,0.000235
630.00,0.000321
629.00,0.000395
628.00,0.000284
627.00,0.000551
626.00,0.000540
625.00,0.000878
624.00,0.000616
623.00,0.000462
622.00,0.000602
621.00,0.000811
620.00,0.000366
619.00,0.000407
618.00,0.000434
617.00,0.000627
616.00,0.000763
615.00,0.000712
614.00,0.000815
613.00,0.000874
612.00,0.000855
611.00,0.000842
610.00,0.001098
609.00,0.000961
608.00,0.000919
607.00,0.001239
606.00,0.001606
605.00,0.001332
604.00,0.001155
603.00,0.001491
602.00,0.001387
601.00,0.001767
600.00,0.002140
599.00,0.002050
598.00,0.002211
597.00,0.002097
596.00,0.002243
595.00,0.002119
594.00,0.002410
593.00,0.002484
592.00,0.002848
591.00,0.002609
590.00,0.003406
589.00,0.003413
588.00,0.003556
587.00,0.003474
586.00,0.003788
585.00,0.004337
584.00,0.004668
583.00,0.004803
582.00,0.005006
581.00,0.005506
580.00,0.005884
579.00,0.006113
578.00,0.006485
577.00,0.006915
576.00,0.007406
575.00,0.007856
574.00,0.008200
573.00,0.008750
572.00,0.009279
571.00,0.009669
570.00,0.010117
569.00,0.010625
568.00,0.010783
567.00,0.011519
566.00,0.011957
565.00,0.012421
564.00,0.013177
563.00,0.013379
562.00,0.013838
561.00,0.013969
560.00,0.014308
559.00,0.014766
558.00,0.014994
557.00,0.015245
556.00,0.015807
555.00,0.015865
554.00,0.015928
553.00,0.016258
552.00,0.016423
551.00,0.016676
550.00,0.016944
549.00,0.017161
548.00,0.017231
547.00,0.017217
546.00,0.017679
545.00,0.017857
544.00,0.018124
543.00,0.018241
542.00,0.018649
541.00,0.018804
540.00,0.019183
539.00,0.019505
538.00,0.019805
537.00,0.020393
536.00,0.020830
535.00,0.021501
534.00,0.021682
533.00,0.022372
532.00,0.022865
531.00,0.023654
530.00,0.024350
529.00,0.024964
528.00,0.025727
527.00,0.026478
526.00,0.027477
525.00,0.028169
524.00,0.029194
523.00,0.030297
522.00,0.031289
521.00,0.032480
520.00,0.033785
519.00,0.035154
518.00,0.036292
517.00,0.037831
516.00,0.039243
515.00,0.040976
514.00,0.042546
513.00,0.043851
512.00,0.045742
511.00,0.047803
510.00,0.049730
509.00,0.051899
508.00,0.054054
507.00,0.056443
506.00,0.058871
505.00,0.061184
504.00,0.063578
503.00,0.066512
502.00,0.069324
501.00,0.072059
500.00,0.075176
499.00,0.078362
498.00,0.081508
497.00,0.084621
496.00,0.087978
495.00,0.091545
494.00,0.095473
493.00,0.098980
492.00,0.102459
491.00,0.105906
490.00,0.109954
489.00,0.113946
488.00,0.117893
487.00,0.121611
486.00,0.125661
485.00,0.129700
484.00,0.133637
483.00,0.137835
482.00,0.141779
481.00,0.145998
480.00,0.149618
479.00,0.153619
478.00,0.157723
477.00,0.161857
476.00,0.165695
475.00,0.169448
474.00,0.173200
473.00,0.176913
472.00,0.180980
471.00,0.184350
470.00,0.187789
469.00,0.191136
468.00,0.194217
467.00,0.197648
466.00,0.200950
465.00,0.204061
464.00,0.206856
463.00,0.209601
462.00,0.212395
461.00,0.215120
460.00,0.217646
459.00,0.219956
458.00,0.222019
457.00,0.224195
456.00,0.226156
455.00,0.228247
454.00,0.229971
453.00,0.231546
452.00,0.233251
451.00,0.234663
450.00,0.235810
449.00,0.237215
448.00,0.238318
447.00,0.239457
446.00,0.240263
445.00,0.241023
444.00,0.241869
443.00,0.242692
442.00,0.243197
441.00,0.243726
440.00,0.244219
439.00,0.244644
438.00,0.244983
437.00,0.245233
436.00,0.245568
435.00,0.245814
434.00,0.245826
433.00,0.245945
432.00,0.246013
431.00,0.246125
430.00,0.245931
429.00,0.245938
428.00,0.245702
427.00,0.245684
426.00,0.245435
425.00,0.245299
424.00,0.245060
423.00,0.244761
422.00,0.244420
421.00,0.243996
420.00,0.243560
419.00,0.243032
418.00,0.242577
417.00,0.241989
416.00,0.241289
415.00,0.240434
414.00,0.239641
413.00,0.238691
412.00,0.238086
411.00,0.237213
410.00,0.235988
409.00,0.234861
408.00,0.233500
407.00,0.232129
406.00,0.230754
405.00,0.229470
404.00,0.227851
403.00,0.225965
402.00,0.224348
401.00,0.222656
400.00,0.220951
399.00,0.218943
398.00,0.216879
397.00,0.214506
396.00,0.211991
395.00,0.209644
394.00,0.207563
393.00,0.205013
392.00,0.202356
391.00,0.199650
390.00,0.196609
389.00,0.194095
388.00,0.191047
387.00,0.188162
386.00,0.184932
385.00,0.181715
384.00,0.178475
383.00,0.175483
382.00,0.172217
381.00,0.168977
380.00,0.165604
379.00,0.162187
378.00,0.158784
377.00,0.155702
376.00,0.152475
375.00,0.149023
374.00,0.145106
373.00,0.141928
372.00,0.138493
371.00,0.135069
370.00,0.131683
369.00,0.128253
368.00,0.124397
367.00,0.121707
366.00,0.118183
365.00,0.114914
364.00,0.111994
363.00,0.108650
362.00,0.105506
361.00,0.102073
360.00,0.099292
359.00,0.096010
358.00,0.093113
357.00,0.090213
356.00,0.087239
355.00,0.084426
354.00,0.081852
353.00,0.079177
352.00,0.076663
351.00,0.073766
350.00,0.071570


acidic methyl red
1/1/2006 1:05:37 PM
Wavelength (nm),Absorbance
850.00,-0.000426
849.00,-0.000242
848.00,-0.000405
847.00,-0.000239
846.00,0.000157
845.00,-0.000843
844.00,-0.000339
843.00,-0.001203
842.00,-0.001022
841.00,-0.000604
840.00,-0.000623
839.00,-0.000643
838.00,-0.000726
837.00,-0.001141
836.00,0.000095
835.00,-0.000279
834.00,-0.000323
833.00,-0.000502
832.00,-0.000408
831.00,0.000034
830.00,-0.000149
829.00,-0.000507
828.00,-0.000333
827.00,-0.000126
826.00,-0.000585
825.00,-0.000722
824.00,-0.000176
823.00,-0.000534
822.00,-0.000390
821.00,-0.000323
820.00,0.000055
819.00,0.000268
818.00,0.000094
817.00,-0.000555
816.00,-0.000023
815.00,-0.001174
814.00,-0.000153
813.00,0.000806
812.00,0.000504
811.00,-0.001294
810.00,-0.000211
809.00,-0.002292
808.00,0.000316
807.00,-0.000234
806.00,-0.000675
805.00,-0.000588
804.00,0.000818
803.00,0.000188
802.00,-0.000241
801.00,-0.000072
800.00,0.000639
799.00,-0.000612
798.00,-0.000107
797.00,0.000047
796.00,0.000382
795.00,-0.000478
794.00,0.001290
793.00,0.000169
792.00,0.000459
791.00,0.000338
790.00,0.001186
789.00,0.000218
788.00,0.001921
787.00,0.000035
786.00,-0.000715
785.00,0.000421
784.00,-0.001173
783.00,-0.000272
782.00,-0.000504
781.00,-0.000183
780.00,0.000231
779.00,-0.000793
778.00,-0.000121
777.00,0.000211
776.00,-0.000253
775.00,-0.000330
774.00,0.000147
773.00,-0.000471
772.00,-0.001187
771.00,-0.000886
770.00,-0.000232
769.00,0.000641
768.00,-0.000938
767.00,0.000040
766.00,-0.000712
765.00,-0.000996
764.00,0.000087
763.00,-0.000671
762.00,-0.000364
761.00,-0.000569
760.00,-0.000563
759.00,-0.000748
758.00,0.000312
757.00,0.000337
756.00,-0.000587
755.00,-0.000247
754.00,-0.001224
753.00,-0.000501
752.00,-0.000555
751.00,-0.000144
750.00,-0.000727
749.00,-0.000324
748.00,-0.000163
747.00,-0.000781
746.00,-0.000464
745.00,0.000040
744.00,-0.000264
743.00,0.000435
742.00,-0.001053
741.00,-0.000712
740.00,0.000010
739.00,-0.000561
738.00,-0.001240
737.00,-0.000319
736.00,-0.000485
735.00,-0.000058
734.00,-0.000568
733.00,-0.000225
732.00,-0.000309
731.00,-0.000076
730.00,-0.000479
729.00,-0.000671
728.00,0.000707
727.00,-0.000046
726.00,-0.000362
725.00,-0.000227
724.00,-0.000793
723.00,-0.000230
722.00,-0.000027
721.00,0.000582
720.00,-0.000110
719.00,-0.000060
718.00,-0.000099
717.00,-0.000285
716.00,-0.000306
715.00,-0.000266
714.00,-0.000064
713.00,-0.000295
712.00,0.000099
711.00,0.000284
710.00,0.000390
709.00,-0.000451
708.00,0.000288
707.00,0.000211
706.00,-0.000294
705.00,-0.000541
704.00,-0.000510
703.00,-0.000462
702.00,-0.000516
701.00,-0.000075
700.00,-0.000194
699.00,0.000026
698.00,-0.000068
697.00,-0.000112
696.00,-0.000097
695.00,0.000099
694.00,0.000215
693.00,-0.000331
692.00,-0.000068
691.00,0.000187
690.00,0.000217
689.00,0.000298
688.00,0.000230
687.00,0.000011
686.00,0.000036
685.00,-0.000007
684.00,0.000105
683.00,0.000004
682.00,0.000070
681.00,0.000080
680.00,0.000031
679.00,-0.000202
678.00,-0.000143
677.00,-0.000019
676.00,0.000073
675.00,-0.000006
674.00,0.000307
673.00,0.000131
672.00,-0.000057
671.00,0.000371
670.00,0.000351
669.00,0.000449
668.00,0.000207
667.00,0.000307
666.00,0.000127
665.00,0.000128
664.00,0.000262
663.00,0.000539
662.00,0.000118
661.00,0.000412
660.00,0.000015
659.00,-0.000035
658.00,0.000323
657.00,0.000633
656.00,0.000665
655.00,0.000047
654.00,0.000114
653.00,0.000294
652.00,0.000339
651.00,0.000076
650.00,0.000705
649.00,0.000415
648.00,0.000824
647.00,0.000615
646.00,0.000867
645.00,0.000689
644.00,0.000642
643.00,0.000503
642.00,0.000779
641.00,0.000727
640.00,0.000878
639.00,0.001189
638.00,0.001281
637.00,0.000839
636.00,0.000504
635.00,0.000954
634.00,0.001216
633.00,0.001139
632.00,0.001212
631.00,0.001059
630.00,0.001742
629.00,0.001687
628.00,0.001683
627.00,0.001606
626.00,0.002161
625.00,0.002386
624.00,0.002449
623.00,0.002650
622.00,0.002593
621.00,0.002765
620.00,0.003274
619.00,0.003663
618.00,0.003594
617.00,0.004329
616.00,0.004534
615.00,0.005111
614.00,0.005073
613.00,0.005883
612.00,0.006621
611.00,0.007107
610.00,0.007968
609.00,0.008596
608.00,0.009392
607.00,0.010496
606.00,0.011798
605.00,0.012953
604.00,0.014096
603.00,0.015725
602.00,0.017187
601.00,0.019596
600.00,0.022084
599.00,0.024139
598.00,0.027025
597.00,0.029825
596.00,0.033378
595.00,0.037377
594.00,0.041591
593.00,0.045899
592.00,0.051035
591.00,0.056358
590.00,0.063239
589.00,0.069867
588.00,0.077808
587.00,0.086095
586.00,0.094953
585.00,0.105136
584.00,0.116135
583.00,0.126578
582.00,0.138046
581.00,0.150699
580.00,0.163666
579.00,0.178900
578.00,0.194780
577.00,0.210705
576.00,0.226429
575.00,0.242778
574.00,0.260259
573.00,0.279236
572.00,0.296467
571.00,0.314623
570.00,0.332122
569.00,0.349705
568.00,0.367999
567.00,0.387253
566.00,0.404082
565.00,0.420666
564.00,0.436477
563.00,0.451774
562.00,0.467301
561.00,0.480698
560.00,0.493061
559.00,0.504811
558.00,0.515016
557.00,0.525028
556.00,0.533828
555.00,0.541108
554.00,0.548227
553.00,0.554152
552.00,0.559203
551.00,0.563985
550.00,0.567907
549.00,0.571440
548.00,0.574090
547.00,0.576448
546.00,0.578691
545.00,0.580854
544.00,0.582802
543.00,0.584519
542.00,0.586487
541.00,0.587931
540.00,0.589584
539.00,0.591280
538.00,0.593338
537.00,0.595427
536.00,0.597569
535.00,0.599712
534.00,0.601963
533.00,0.604457
532.00,0.606239
531.00,0.608763
530.00,0.610728
529.00,0.612281
528.00,0.613719
527.00,0.614901
526.00,0.615748
525.00,0.615879
524.00,0.615889
523.00,0.615556
522.00,0.614197
521.00,0.612733
520.00,0.610186
519.00,0.607886
518.00,0.604717
517.00,0.600652
516.00,0.595776
515.00,0.590874
514.00,0.585976
513.00,0.580173
512.00,0.573987
511.00,0.566830
510.00,0.560103
509.00,0.553275
508.00,0.545702
507.00,0.538273
506.00,0.529722
505.00,0.522033
504.00,0.513657
503.00,0.506325
502.00,0.499092
501.00,0.490501
500.00,0.481988
499.00,0.474194
498.00,0.465669
497.00,0.457961
496.00,0.450193
495.00,0.441623
494.00,0.432928
493.00,0.424509
492.00,0.417170
491.00,0.409093
490.00,0.400708
489.00,0.391588
488.00,0.382963
487.00,0.374860
486.00,0.366092
485.00,0.357775
484.00,0.349405
483.00,0.340381
482.00,0.331881
481.00,0.323153
480.00,0.314976
479.00,0.306884
478.00,0.298477
477.00,0.289033
476.00,0.281427
475.00,0.273540
474.00,0.265378
473.00,0.257618
472.00,0.249848
471.00,0.242060
470.00,0.234736
469.00,0.227627
468.00,0.220922
467.00,0.213766
466.00,0.206734
465.00,0.200109
464.00,0.193514
463.00,0.187187
462.00,0.181439
461.00,0.174898
460.00,0.169044
459.00,0.163502
458.00,0.158047
457.00,0.152799
456.00,0.147479
455.00,0.142292
454.00,0.136661
453.00,0.132108
452.00,0.127430
451.00,0.122925
450.00,0.118560
449.00,0.113968
448.00,0.109887
447.00,0.105739
446.00,0.102193
445.00,0.098720
444.00,0.094821
443.00,0.091175
442.00,0.087844
441.00,0.084590
440.00,0.081540
439.00,0.078423
438.00,0.075522
437.00,0.072564
436.00,0.069952
435.00,0.067598
434.00,0.065168
433.00,0.062750
432.00,0.060441
431.00,0.058169
430.00,0.056041
429.00,0.054188
428.00,0.052125
427.00,0.050358
426.00,0.048534
425.00,0.046919
424.00,0.045236
423.00,0.043759
422.00,0.042514
421.00,0.041109
420.00,0.039579
419.00,0.038497
418.00,0.037224
417.00,0.036079
416.00,0.034951
415.00,0.033796
414.00,0.032832
413.00,0.031882
412.00,0.031060
411.00,0.030103
410.00,0.029346
409.00,0.028515
408.00,0.027576
407.00,0.027058
406.00,0.026463
405.00,0.025613
404.00,0.024939
403.00,0.024315
402.00,0.023917
401.00,0.023172
400.00,0.022680
399.00,0.022355
398.00,0.021885
397.00,0.021544
396.00,0.021044
395.00,0.020810
394.00,0.020655
393.00,0.020324
392.00,0.020039
391.00,0.019830
390.00,0.019495
389.00,0.019423
388.00,0.019095
387.00,0.019022
386.00,0.019014
385.00,0.019078
384.00,0.018972
383.00,0.019102
382.00,0.019055
381.00,0.019118
380.00,0.019023
379.00,0.019403
378.00,0.019351
377.00,0.019322
376.00,0.019609
375.00,0.019917
374.00,0.020258
373.00,0.020057
372.00,0.020637
371.00,0.020854
370.00,0.021068
369.00,0.021679
368.00,0.022091
367.00,0.022715
366.00,0.023178
365.00,0.023653
364.00,0.024166
363.00,0.025005
362.00,0.025545
361.00,0.026394
360.00,0.026964
359.00,0.027745
358.00,0.028493
357.00,0.029087
356.00,0.029843
355.00,0.030505
354.00,0.031079
353.00,0.031796
352.00,0.032334
351.00,0.032901
350.00,0.033466


1
1/1/2006 1:11:03 PM
Wavelength (nm),Absorbance
850.00,0.000204
849.00,-0.000647
848.00,-0.000849
847.00,0.000530
846.00,-0.001047
845.00,-0.000243
844.00,0.000007
843.00,-0.001731
842.00,-0.000922
841.00,-0.000652
840.00,-0.000614
839.00,-0.000812
838.00,-0.000879
837.00,-0.000856
836.00,0.000158
835.00,-0.000366
834.00,-0.000346
833.00,-0.000644
832.00,0.000589
831.00,-0.000123
830.00,-0.000413
829.00,-0.000473
828.00,-0.000018
827.00,-0.000446
826.00,-0.000900
825.00,-0.000288
824.00,-0.000266
823.00,-0.000589
822.00,-0.000270
821.00,-0.000075
820.00,-0.000344
819.00,0.000308
818.00,0.000817
817.00,-0.000559
816.00,-0.000970
815.00,0.000017
814.00,-0.000805
813.00,0.001244
812.00,0.000262
811.00,0.000160
810.00,-0.000110
809.00,-0.001366
808.00,0.001028
807.00,-0.000464
806.00,-0.001375
805.00,0.000038
804.00,0.000070
803.00,0.000264
802.00,0.000915
801.00,0.001008
800.00,-0.000319
799.00,-0.000963
798.00,-0.000566
797.00,0.000273
796.00,0.000363
795.00,0.000062
794.00,0.001597
793.00,0.001412
792.00,0.001067
791.00,0.001407
790.00,0.001295
789.00,0.000638
788.00,0.001844
787.00,0.002110
786.00,0.000039
785.00,0.000248
784.00,-0.000397
783.00,0.000239
782.00,0.000888
781.00,0.001220
780.00,0.000369
779.00,0.000812
778.00,-0.000229
777.00,0.001376
776.00,0.000663
775.00,0.000175
774.00,0.001022
773.00,0.001333
772.00,-0.000199
771.00,-0.000465
770.00,0.001670
769.00,0.000556
768.00,0.000181
767.00,0.000950
766.00,0.000181
765.00,-0.000130
764.00,-0.000389
763.00,-0.000663
762.00,-0.000716
761.00,-0.000731
760.00,0.000761
759.00,-0.000224
758.00,0.000295
757.00,-0.000758
756.00,0.000161
755.00,-0.000015
754.00,-0.001388
753.00,-0.000069
752.00,0.000306
751.00,-0.000352
750.00,-0.000066
749.00,-0.000210
748.00,0.000784
747.00,-0.000306
746.00,0.000561
745.00,0.000723
744.00,-0.000401
743.00,0.000375
742.00,-0.000254
741.00,-0.000159
740.00,-0.000224
739.00,-0.000760
738.00,-0.000998
737.00,-0.000280
736.00,0.000064
735.00,0.000208
734.00,0.000129
733.00,0.000166
732.00,0.000326
731.00,0.000032
730.00,0.000420
729.00,-0.000486
728.00,0.000183
727.00,0.000403
726.00,-0.000453
725.00,-0.000456
724.00,-0.000141
723.00,0.000415
722.00,0.000530
721.00,-0.000003
720.00,0.000041
719.00,-0.000313
718.00,0.000291
717.00,-0.000530
716.00,0.000602
715.00,0.000095
714.00,0.000128
713.00,0.000316
712.00,0.000324
711.00,0.000159
710.00,0.000311
709.00,-0.000080
708.00,0.000017
707.00,-0.000088
706.00,0.000150
705.00,-0.000372
704.00,-0.000322
703.00,0.000269
702.00,0.000019
701.00,0.000268
700.00,0.000002
699.00,0.000266
698.00,0.000137
697.00,-0.000276
696.00,-0.000032
695.00,0.000144
694.00,0.000271
693.00,-0.000092
692.00,0.000460
691.00,0.000084
690.00,0.000028
689.00,0.000487
688.00,0.000283
687.00,0.000435
686.00,0.000192
685.00,0.000376
684.00,0.000328
683.00,0.000332
682.00,0.000262
681.00,0.000176
680.00,0.000157
679.00,0.000244
678.00,0.000281
677.00,0.000347
676.00,0.000303
675.00,0.000165
674.00,0.000521
673.00,0.000111
672.00,0.000059
671.00,0.000590
670.00,0.000429
669.00,0.000778
668.00,0.000409
667.00,0.000372
666.00,0.000645
665.00,0.000504
664.00,-0.000181
663.00,0.000343
662.00,-0.000071
661.00,0.000360
660.00,0.000350
659.00,0.000263
658.00,0.000701
657.00,0.000851
656.00,0.000569
655.00,0.000419
654.00,0.000529
653.00,0.000593
652.00,0.000644
651.00,0.000741
650.00,0.000589
649.00,0.000419
648.00,0.001312
647.00,0.000497
646.00,0.001225
645.00,0.000728
644.00,0.000683
643.00,0.000688
642.00,0.001306
641.00,0.001050
640.00,0.000551
639.00,0.001257
638.00,0.001263
637.00,0.000632
636.00,0.000561
635.00,0.000935
634.00,0.000935
633.00,0.001203
632.00,0.000883
631.00,0.001490
630.00,0.001436
629.00,0.001308
628.00,0.001360
627.00,0.001529
626.00,0.001927
625.00,0.001698
624.00,0.002040
623.00,0.002021
622.00,0.002193
621.00,0.002538
620.00,0.002194
619.00,0.002517
618.00,0.002720
617.00,0.003143
616.00,0.003431
615.00,0.004021
614.00,0.004040
613.00,0.004741
612.00,0.004781
611.00,0.005026
610.00,0.005784
609.00,0.006352
608.00,0.007092
607.00,0.007466
606.00,0.008917
605.00,0.009235
604.00,0.010210
603.00,0.011468
602.00,0.012235
601.00,0.014229
600.00,0.016031
599.00,0.017246
598.00,0.019310
597.00,0.021319
596.00,0.023689
595.00,0.026395
594.00,0.029907
593.00,0.032627
592.00,0.036182
591.00,0.039996
590.00,0.044701
589.00,0.049881
588.00,0.055155
587.00,0.061035
586.00,0.066942
585.00,0.074573
584.00,0.081728
583.00,0.089477
582.00,0.097344
581.00,0.106110
580.00,0.115439
579.00,0.125528
578.00,0.136500
577.00,0.147509
576.00,0.158625
575.00,0.169895
574.00,0.181789
573.00,0.194695
572.00,0.206640
571.00,0.219013
570.00,0.231292
569.00,0.242706
568.00,0.255444
567.00,0.268038
566.00,0.279436
565.00,0.290255
564.00,0.301500
563.00,0.311275
562.00,0.321549
561.00,0.330035
560.00,0.337851
559.00,0.345486
558.00,0.351615
557.00,0.357959
556.00,0.364268
555.00,0.368306
554.00,0.372120
553.00,0.375674
552.00,0.378592
551.00,0.381084
550.00,0.383349
549.00,0.385247
548.00,0.386567
547.00,0.387681
546.00,0.388778
545.00,0.389863
544.00,0.390404
543.00,0.391378
542.00,0.392280
541.00,0.393047
540.00,0.394065
539.00,0.394903
538.00,0.396391
537.00,0.397680
536.00,0.399019
535.00,0.400067
534.00,0.401623
533.00,0.403210
532.00,0.404492
531.00,0.405965
530.00,0.407592
529.00,0.408653
528.00,0.409784
527.00,0.410627
526.00,0.411071
525.00,0.411705
524.00,0.411671
523.00,0.411476
522.00,0.410658
521.00,0.409930
520.00,0.408363
519.00,0.406867
518.00,0.404816
517.00,0.402447
516.00,0.399234
515.00,0.396270
514.00,0.393333
513.00,0.389513
512.00,0.385486
511.00,0.381456
510.00,0.376912
509.00,0.373072
508.00,0.368579
507.00,0.363840
506.00,0.359050
505.00,0.354575
504.00,0.349838
503.00,0.345605
502.00,0.341678
501.00,0.336629
500.00,0.332226
499.00,0.328057
498.00,0.323208
497.00,0.319368
496.00,0.315429
495.00,0.310904
494.00,0.306615
493.00,0.302472
492.00,0.298955
491.00,0.294858
490.00,0.290838
489.00,0.286431
488.00,0.282144
487.00,0.278322
486.00,0.274157
485.00,0.270127
484.00,0.266204
483.00,0.261786
482.00,0.257825
481.00,0.253574
480.00,0.249636
479.00,0.245793
478.00,0.241990
477.00,0.237350
476.00,0.233744
475.00,0.230143
474.00,0.226045
473.00,0.222501
472.00,0.218874
471.00,0.214983
470.00,0.211748
469.00,0.208174
468.00,0.205261
467.00,0.201903
466.00,0.198359
465.00,0.195431
464.00,0.192444
463.00,0.189418
462.00,0.186933
461.00,0.183616
460.00,0.180946
459.00,0.178304
458.00,0.175613
457.00,0.173048
456.00,0.170420
455.00,0.167776
454.00,0.165179
453.00,0.162793
452.00,0.160552
451.00,0.158243
450.00,0.155996
449.00,0.153580
448.00,0.151434
447.00,0.149229
446.00,0.147312
445.00,0.145591
444.00,0.143370
443.00,0.141494
442.00,0.139587
441.00,0.137784
440.00,0.136043
439.00,0.134379
438.00,0.132610
437.00,0.131014
436.00,0.129421
435.00,0.127978
434.00,0.126539
433.00,0.125253
432.00,0.123678
431.00,0.122323
430.00,0.120962
429.00,0.119897
428.00,0.118597
427.00,0.117487
426.00,0.116267
425.00,0.115197
424.00,0.114110
423.00,0.113136
422.00,0.112172
421.00,0.111205
420.00,0.110225
419.00,0.109174
418.00,0.108511
417.00,0.107503
416.00,0.106635
415.00,0.105695
414.00,0.104627
413.00,0.103827
412.00,0.103021
411.00,0.102243
410.00,0.101133
409.00,0.100448
408.00,0.099364
407.00,0.098366
406.00,0.097722
405.00,0.096810
404.00,0.095806
403.00,0.094813
402.00,0.093883
401.00,0.092988
400.00,0.091986
399.00,0.091050
398.00,0.089945
397.00,0.089033
396.00,0.087988
395.00,0.086934
394.00,0.086091
393.00,0.084975
392.00,0.084028
391.00,0.082803
390.00,0.081607
389.00,0.080682
388.00,0.079429
387.00,0.078440
386.00,0.077093
385.00,0.076342
384.00,0.074800
383.00,0.073970
382.00,0.072812
381.00,0.071603
380.00,0.070591
379.00,0.069472
378.00,0.068349
377.00,0.067349
376.00,0.066130
375.00,0.065388
374.00,0.064269
373.00,0.063099
372.00,0.062206
371.00,0.061156
370.00,0.060178
369.00,0.059345
368.00,0.058388
367.00,0.057835
366.00,0.056736
365.00,0.055896
364.00,0.055180
363.00,0.054689
362.00,0.053835
361.00,0.053184
360.00,0.052664
359.00,0.051795
358.00,0.051368
357.00,0.050814
356.00,0.050148
355.00,0.049703
354.00,0.049229
353.00,0.048623
352.00,0.048183
351.00,0.047650
350.00,0.047037


2
1/1/2006 1:12:39 PM
Wavelength (nm),Absorbance
850.00,-0.000244
849.00,0.000374
848.00,0.000241
847.00,0.000990
846.00,-0.000677
845.00,0.000321
844.00,0.000049
843.00,-0.001033
842.00,0.000449
841.00,0.000099
840.00,0.000533
839.00,0.000024
838.00,-0.000028
837.00,-0.000706
836.00,0.000505
835.00,0.000321
834.00,0.000672
833.00,-0.000604
832.00,0.000802
831.00,0.000755
830.00,0.000384
829.00,0.000400
828.00,0.000415
827.00,0.000739
826.00,0.000693
825.00,0.000002
824.00,0.000438
823.00,0.000296
822.00,0.000323
821.00,0.000474
820.00,0.000564
819.00,0.000373
818.00,0.000777
817.00,0.000769
816.00,0.001105
815.00,0.000385
814.00,0.000301
813.00,0.001147
812.00,0.000442
811.00,0.000442
810.00,0.001207
809.00,-0.000111
808.00,0.000252
807.00,-0.000341
806.00,0.000554
805.00,0.001051
804.00,0.001112
803.00,0.000994
802.00,0.001194
801.00,0.001091
800.00,0.001655
799.00,0.001314
798.00,0.000977
797.00,0.001050
796.00,0.000729
795.00,-0.000372
794.00,0.001139
793.00,0.000881
792.00,0.001514
791.00,0.001179
790.00,0.001369
789.00,0.001219
788.00,0.001875
787.00,0.001053
786.00,0.000917
785.00,0.001328
784.00,0.000183
783.00,0.000083
782.00,0.000698
781.00,0.001180
780.00,0.001526
779.00,-0.000198
778.00,-0.000398
777.00,0.001472
776.00,0.001039
775.00,0.000246
774.00,0.000249
773.00,0.001061
772.00,-0.000492
771.00,0.000600
770.00,0.001902
769.00,0.002082
768.00,0.000071
767.00,0.001436
766.00,0.000269
765.00,0.000879
764.00,0.000786
763.00,0.000615
762.00,0.000396
761.00,0.000160
760.00,0.000908
759.00,-0.000677
758.00,0.001706
757.00,0.000645
756.00,0.000437
755.00,0.000533
754.00,0.000360
753.00,0.000467
752.00,0.000601
751.00,0.000962
750.00,0.000149
749.00,0.001352
748.00,0.001176
747.00,0.000583
746.00,0.001087
745.00,0.001252
744.00,0.001150
743.00,0.001241
742.00,0.000837
741.00,0.000480
740.00,0.001247
739.00,0.000622
738.00,0.000825
737.00,0.000651
736.00,0.000786
735.00,0.001804
734.00,-0.000017
733.00,0.000854
732.00,0.001094
731.00,0.000464
730.00,0.000528
729.00,0.000625
728.00,0.001229
727.00,0.001528
726.00,0.000648
725.00,0.001083
724.00,0.000667
723.00,0.000500
722.00,0.001234
721.00,0.001299
720.00,0.000945
719.00,0.000831
718.00,0.001045
717.00,0.001291
716.00,0.000842
715.00,0.000913
714.00,0.001314
713.00,0.001565
712.00,0.001445
711.00,0.001030
710.00,0.001315
709.00,0.000984
708.00,0.001021
707.00,0.001341
706.00,0.001115
705.00,0.000812
704.00,0.000711
703.00,0.001430
702.00,0.000796
701.00,0.001373
700.00,0.001133
699.00,0.001517
698.00,0.001412
697.00,0.000914
696.00,0.001081
695.00,0.001296
694.00,0.001052
693.00,0.001082
692.00,0.001225
691.00,0.001077
690.00,0.001232
689.00,0.001561
688.00,0.001394
687.00,0.001314
686.00,0.001206
685.00,0.001213
684.00,0.001318
683.00,0.001418
682.00,0.001338
681.00,0.001163
680.00,0.001215
679.00,0.001221
678.00,0.001170
677.00,0.001112
676.00,0.001359
675.00,0.001289
674.00,0.001753
673.00,0.001153
672.00,0.001490
671.00,0.001504
670.00,0.001200
669.00,0.001576
668.00,0.001399
667.00,0.001461
666.00,0.001480
665.00,0.001423
664.00,0.001276
663.00,0.001752
662.00,0.001713
661.00,0.001391
660.00,0.001351
659.00,0.001500
658.00,0.001302
657.00,0.001838
656.00,0.001455
655.00,0.001184
654.00,0.001664
653.00,0.001691
652.00,0.001471
651.00,0.001478
650.00,0.001629
649.00,0.001639
648.00,0.002267
647.00,0.001402
646.00,0.001865
645.00,0.001958
644.00,0.001682
643.00,0.001921
642.00,0.001738
641.00,0.001911
640.00,0.001825
639.00,0.002221
638.00,0.002089
637.00,0.001861
636.00,0.001442
635.00,0.002096
634.00,0.002045
633.00,0.002457
632.00,0.002216
631.00,0.002260
630.00,0.002607
629.00,0.002159
628.00,0.002370
627.00,0.002507
626.00,0.002638
625.00,0.002804
624.00,0.003320
623.00,0.002961
622.00,0.003214
621.00,0.003189
620.00,0.003232
619.00,0.003390
618.00,0.003565
617.00,0.003819
616.00,0.004582
615.00,0.004614
614.00,0.004853
613.00,0.005290
612.00,0.005650
611.00,0.005909
610.00,0.006667
609.00,0.006911
608.00,0.007409
607.00,0.008014
606.00,0.008966
605.00,0.009661
604.00,0.010319
603.00,0.011333
602.00,0.012131
601.00,0.014041
600.00,0.015646
599.00,0.016567
598.00,0.018465
597.00,0.020334
596.00,0.022500
595.00,0.024928
594.00,0.027676
593.00,0.030213
592.00,0.033584
591.00,0.036867
590.00,0.041166
589.00,0.045474
588.00,0.050320
587.00,0.055440
586.00,0.060824
585.00,0.067383
584.00,0.073830
583.00,0.080874
582.00,0.087778
581.00,0.095551
580.00,0.103390
579.00,0.112601
578.00,0.122486
577.00,0.132208
576.00,0.142351
575.00,0.152073
574.00,0.162640
573.00,0.174590
572.00,0.184821
571.00,0.195918
570.00,0.206620
569.00,0.216788
568.00,0.228108
567.00,0.239257
566.00,0.249476
565.00,0.259339
564.00,0.269022
563.00,0.277787
562.00,0.286940
561.00,0.294393
560.00,0.301786
559.00,0.307935
558.00,0.313768
557.00,0.319092
556.00,0.324804
555.00,0.328483
554.00,0.331659
553.00,0.335145
552.00,0.337623
551.00,0.339919
550.00,0.341645
549.00,0.343496
548.00,0.344414
547.00,0.345527
546.00,0.346457
545.00,0.347429
544.00,0.347893
543.00,0.348882
542.00,0.349685
541.00,0.350267
540.00,0.351276
539.00,0.352118
538.00,0.353388
537.00,0.354545
536.00,0.355498
535.00,0.356906
534.00,0.358187
533.00,0.359666
532.00,0.361033
531.00,0.362258
530.00,0.363714
529.00,0.364702
528.00,0.365893
527.00,0.366555
526.00,0.367300
525.00,0.367903
524.00,0.367901
523.00,0.367924
522.00,0.367364
521.00,0.366433
520.00,0.365719
519.00,0.364342
518.00,0.362608
517.00,0.360807
516.00,0.358138
515.00,0.355618
514.00,0.353116
513.00,0.350225
512.00,0.346805
511.00,0.343122
510.00,0.339923
509.00,0.336462
508.00,0.332731
507.00,0.329123
506.00,0.324893
505.00,0.321268
504.00,0.317481
503.00,0.314131
502.00,0.310966
501.00,0.306919
500.00,0.303104
499.00,0.300059
498.00,0.296455
497.00,0.293229
496.00,0.290179
495.00,0.286780
494.00,0.283631
493.00,0.280410
492.00,0.277654
491.00,0.274478
490.00,0.271386
489.00,0.268189
488.00,0.264973
487.00,0.262112
486.00,0.258988
485.00,0.255941
484.00,0.253052
483.00,0.249842
482.00,0.246785
481.00,0.243783
480.00,0.240533
479.00,0.237953
478.00,0.234843
477.00,0.231507
476.00,0.228873
475.00,0.226151
474.00,0.223196
473.00,0.220504
472.00,0.218046
471.00,0.215072
470.00,0.212524
469.00,0.210007
468.00,0.207784
467.00,0.205291
466.00,0.202764
465.00,0.200468
464.00,0.198088
463.00,0.195973
462.00,0.194111
461.00,0.191649
460.00,0.189530
459.00,0.187546
458.00,0.185554
457.00,0.183573
456.00,0.181635
455.00,0.179515
454.00,0.177360
453.00,0.175679
452.00,0.173827
451.00,0.171975
450.00,0.170182
449.00,0.168348
448.00,0.166529
447.00,0.164903
446.00,0.163349
445.00,0.161861
444.00,0.160163
443.00,0.158419
442.00,0.157009
441.00,0.155331
440.00,0.154104
439.00,0.152554
438.00,0.151061
437.00,0.149630
436.00,0.148369
435.00,0.147293
434.00,0.145971
433.00,0.144701
432.00,0.143478
431.00,0.142267
430.00,0.141178
429.00,0.140196
428.00,0.138871
427.00,0.137989
426.00,0.137004
425.00,0.135916
424.00,0.135001
423.00,0.134156
422.00,0.133386
421.00,0.132356
420.00,0.131321
419.00,0.130548
418.00,0.129742
417.00,0.128871
416.00,0.127874
415.00,0.127065
414.00,0.126018
413.00,0.125148
412.00,0.124413
411.00,0.123324
410.00,0.122624
409.00,0.121615
408.00,0.120579
407.00,0.119753
406.00,0.118594
405.00,0.117823
404.00,0.116779
403.00,0.115670
402.00,0.114741
401.00,0.113594
400.00,0.112607
399.00,0.111512
398.00,0.110135
397.00,0.109077
396.00,0.107702
395.00,0.106481
394.00,0.105500
393.00,0.104198
392.00,0.103001
391.00,0.101588
390.00,0.100028
389.00,0.098939
388.00,0.097511
387.00,0.096105
386.00,0.094502
385.00,0.093253
384.00,0.091903
383.00,0.090447
382.00,0.089222
381.00,0.087895
380.00,0.086120
379.00,0.084976
378.00,0.083463
377.00,0.082145
376.00,0.080804
375.00,0.079336
374.00,0.078061
373.00,0.076507
372.00,0.075370
371.00,0.073932
370.00,0.072791
369.00,0.071288
368.00,0.069949
367.00,0.069025
366.00,0.067924
365.00,0.066703
364.00,0.065759
363.00,0.064648
362.00,0.063467
361.00,0.062624
360.00,0.061792
359.00,0.060590
358.00,0.059768
357.00,0.058832
356.00,0.057816
355.00,0.057044
354.00,0.056209
353.00,0.055560
352.00,0.054616
351.00,0.053849
350.00,0.052945


3
1/1/2006 1:14:24 PM
Wavelength (nm),Absorbance
850.00,-0.000982
849.00,0.000738
848.00,-0.001388
847.00,-0.000212
846.00,-0.000751
845.00,-0.001009
844.00,0.001012
843.00,-0.000979
842.00,-0.000263
841.00,-0.000329
840.00,-0.000207
839.00,-0.000133
838.00,-0.000055
837.00,-0.000470
836.00,0.000210
835.00,-0.000220
834.00,-0.000066
833.00,-0.000159
832.00,0.000101
831.00,-0.000196
830.00,0.000270
829.00,-0.000072
828.00,0.000050
827.00,0.000240
826.00,-0.000184
825.00,-0.000148
824.00,0.000110
823.00,-0.000334
822.00,0.000011
821.00,-0.000410
820.00,-0.000203
819.00,-0.000054
818.00,0.000354
817.00,-0.000291
816.00,0.000816
815.00,0.000785
814.00,0.000886
813.00,0.001543
812.00,-0.000255
811.00,-0.001169
810.00,0.000094
809.00,-0.000287
808.00,0.000957
807.00,0.000239
806.00,-0.000364
805.00,-0.000567
804.00,0.000605
803.00,-0.000286
802.00,-0.000319
801.00,0.000954
800.00,0.000110
799.00,0.000497
798.00,0.000083
797.00,0.000411
796.00,0.000005
795.00,-0.000768
794.00,0.001503
793.00,-0.000133
792.00,0.001174
791.00,0.000003
790.00,0.001158
789.00,0.001210
788.00,0.000816
787.00,-0.000195
786.00,-0.000359
785.00,-0.000309
784.00,-0.000843
783.00,-0.000147
782.00,0.000150
781.00,0.000846
780.00,0.000744
779.00,-0.000149
778.00,-0.001251
777.00,0.000636
776.00,0.000508
775.00,0.000720
774.00,0.000301
773.00,-0.000404
772.00,-0.000878
771.00,0.000240
770.00,0.000174
769.00,0.000430
768.00,-0.000547
767.00,0.000367
766.00,-0.000313
765.00,0.000185
764.00,0.000063
763.00,-0.000068
762.00,-0.001464
761.00,-0.000194
760.00,0.000178
759.00,0.000460
758.00,0.000626
757.00,0.000579
756.00,-0.000513
755.00,-0.000307
754.00,-0.000975
753.00,-0.000569
752.00,0.000233
751.00,0.000017
750.00,-0.000636
749.00,-0.000226
748.00,0.000475
747.00,-0.000356
746.00,0.000584
745.00,0.000834
744.00,0.000669
743.00,0.000609
742.00,-0.000131
741.00,-0.000078
740.00,0.000145
739.00,-0.000290
738.00,-0.000406
737.00,0.000074
736.00,0.000577
735.00,0.000536
734.00,0.000034
733.00,0.000739
732.00,0.000711
731.00,-0.000253
730.00,-0.000372
729.00,-0.000023
728.00,0.000344
727.00,0.000490
726.00,-0.000102
725.00,0.000458
724.00,0.000211
723.00,-0.000719
722.00,0.000148
721.00,0.000503
720.00,0.000059
719.00,-0.000049
718.00,0.000241
717.00,0.000310
716.00,0.000656
715.00,0.000123
714.00,0.000090
713.00,0.000344
712.00,0.000253
711.00,0.000462
710.00,0.000246
709.00,0.000079
708.00,0.000476
707.00,0.000683
706.00,-0.000216
705.00,0.000019
704.00,-0.000467
703.00,0.000143
702.00,0.000109
701.00,0.000115
700.00,0.000274
699.00,0.000367
698.00,0.000210
697.00,0.000187
696.00,0.000092
695.00,0.000386
694.00,0.000153
693.00,0.000678
692.00,0.000801
691.00,0.000096
690.00,0.000383
689.00,0.000523
688.00,0.000496
687.00,0.000166
686.00,0.000233
685.00,0.000602
684.00,0.000525
683.00,0.000452
682.00,0.000462
681.00,0.000492
680.00,0.000331
679.00,0.000182
678.00,0.000295
677.00,0.000559
676.00,0.000306
675.00,0.000469
674.00,0.000659
673.00,0.000294
672.00,0.000540
671.00,0.000715
670.00,0.000858
669.00,0.000931
668.00,0.000625
667.00,0.000450
666.00,0.000088
665.00,0.000831
664.00,0.000679
663.00,0.000726
662.00,0.000371
661.00,0.000573
660.00,0.000302
659.00,0.000316
658.00,0.000290
657.00,0.001051
656.00,0.000908
655.00,0.000205
654.00,0.000481
653.00,0.000894
652.00,0.000522
651.00,0.000367
650.00,0.000675
649.00,0.000566
648.00,0.001089
647.00,0.000325
646.00,0.000810
645.00,0.001060
644.00,0.000833
643.00,0.000680
642.00,0.001026
641.00,0.001165
640.00,0.001038
639.00,0.001438
638.00,0.001089
637.00,0.000970
636.00,0.000956
635.00,0.001000
634.00,0.000919
633.00,0.000940
632.00,0.001376
631.00,0.000715
630.00,0.001568
629.00,0.001370
628.00,0.001114
627.00,0.001500
626.00,0.001825
625.00,0.001701
624.00,0.002106
623.00,0.001730
622.00,0.001970
621.00,0.002262
620.00,0.002065
619.00,0.002355
618.00,0.002569
617.00,0.002562
616.00,0.002821
615.00,0.003338
614.00,0.003276
613.00,0.003788
612.00,0.003739
611.00,0.004293
610.00,0.004724
609.00,0.005242
608.00,0.005386
607.00,0.006073
606.00,0.006948
605.00,0.007123
604.00,0.007833
603.00,0.008610
602.00,0.009421
601.00,0.010735
600.00,0.011895
599.00,0.012886
598.00,0.014445
597.00,0.015823
596.00,0.017341
595.00,0.019305
594.00,0.021770
593.00,0.023756
592.00,0.026382
591.00,0.029281
590.00,0.032479
589.00,0.036044
588.00,0.039850
587.00,0.044002
586.00,0.048387
585.00,0.053583
584.00,0.059158
583.00,0.064262
582.00,0.069826
581.00,0.076101
580.00,0.082226
579.00,0.089828
578.00,0.097694
577.00,0.105697
576.00,0.113469
575.00,0.121198
574.00,0.129731
573.00,0.139139
572.00,0.147353
571.00,0.156198
570.00,0.164775
569.00,0.173173
568.00,0.182150
567.00,0.191087
566.00,0.199037
565.00,0.206811
564.00,0.214499
563.00,0.221415
562.00,0.228969
561.00,0.234976
560.00,0.240782
559.00,0.245747
558.00,0.250275
557.00,0.254613
556.00,0.259155
555.00,0.261933
554.00,0.264819
553.00,0.267166
552.00,0.269601
551.00,0.271209
550.00,0.272818
549.00,0.274442
548.00,0.275225
547.00,0.276040
546.00,0.276676
545.00,0.277417
544.00,0.277950
543.00,0.278676
542.00,0.279523
541.00,0.280030
540.00,0.280799
539.00,0.281770
538.00,0.282529
537.00,0.283695
536.00,0.284729
535.00,0.285788
534.00,0.286792
533.00,0.288164
532.00,0.289281
531.00,0.290565
530.00,0.291668
529.00,0.292634
528.00,0.293616
527.00,0.294521
526.00,0.295032
525.00,0.295478
524.00,0.295811
523.00,0.296287
522.00,0.296002
521.00,0.295633
520.00,0.295110
519.00,0.294333
518.00,0.293266
517.00,0.291970
516.00,0.290197
515.00,0.288390
514.00,0.286955
513.00,0.284613
512.00,0.282507
511.00,0.280041
510.00,0.277716
509.00,0.275591
508.00,0.272981
507.00,0.270702
506.00,0.267862
505.00,0.265433
504.00,0.262965
503.00,0.260627
502.00,0.258740
501.00,0.256211
500.00,0.253748
499.00,0.252110
498.00,0.249631
497.00,0.247922
496.00,0.246249
495.00,0.244340
494.00,0.242626
493.00,0.240729
492.00,0.239401
491.00,0.237726
490.00,0.236273
489.00,0.234453
488.00,0.232835
487.00,0.231232
486.00,0.229629
485.00,0.228214
484.00,0.226689
483.00,0.225089
482.00,0.223496
481.00,0.221960
480.00,0.220430
479.00,0.218952
478.00,0.217546
477.00,0.215908
476.00,0.214583
475.00,0.213141
474.00,0.211739
473.00,0.210306
472.00,0.209136
471.00,0.207655
470.00,0.206497
469.00,0.205169
468.00,0.204040
467.00,0.202727
466.00,0.201399
465.00,0.200340
464.00,0.199236
463.00,0.197988
462.00,0.197063
461.00,0.195742
460.00,0.194659
459.00,0.193539
458.00,0.192379
457.00,0.191489
456.00,0.190242
455.00,0.189069
454.00,0.187727
453.00,0.186688
452.00,0.185733
451.00,0.184594
450.00,0.183397
449.00,0.182199
448.00,0.181032
447.00,0.179895
446.00,0.178952
445.00,0.177940
444.00,0.176676
443.00,0.175642
442.00,0.174550
441.00,0.173400
440.00,0.172511
439.00,0.171374
438.00,0.170319
437.00,0.169408
436.00,0.168345
435.00,0.167522
434.00,0.166423
433.00,0.165620
432.00,0.164558
431.00,0.163661
430.00,0.162736
429.00,0.161986
428.00,0.160939
427.00,0.160088
426.00,0.159263
425.00,0.158494
424.00,0.157672
423.00,0.156960
422.00,0.156171
421.00,0.155397
420.00,0.154396
419.00,0.153779
418.00,0.153031
417.00,0.152161
416.00,0.151200
415.00,0.150476
414.00,0.149584
413.00,0.148656
412.00,0.147803
411.00,0.146750
410.00,0.146111
409.00,0.144794
408.00,0.143847
407.00,0.142883
406.00,0.141900
405.00,0.140754
404.00,0.139655
403.00,0.138219
402.00,0.137341
401.00,0.135955
400.00,0.134760
399.00,0.133599
398.00,0.132140
397.00,0.130717
396.00,0.129045
395.00,0.127728
394.00,0.126485
393.00,0.124818
392.00,0.123302
391.00,0.121765
390.00,0.119659
389.00,0.118228
388.00,0.116477
387.00,0.114901
386.00,0.112762
385.00,0.111210
384.00,0.109546
383.00,0.107615
382.00,0.105943
381.00,0.104192
380.00,0.102028
379.00,0.100514
378.00,0.098615
377.00,0.096814
376.00,0.095038
375.00,0.093277
374.00,0.091251
373.00,0.089480
372.00,0.087590
371.00,0.086060
370.00,0.084080
369.00,0.082447
368.00,0.080475
367.00,0.079190
366.00,0.077564
365.00,0.075774
364.00,0.074485
363.00,0.072847
362.00,0.071277
361.00,0.069937
360.00,0.068546
359.00,0.067003
358.00,0.065731
357.00,0.064309
356.00,0.062905
355.00,0.061621
354.00,0.060687
353.00,0.059374
352.00,0.057997
351.00,0.056848
350.00,0.055697


4
1/1/2006 1:16:13 PM
Wavelength (nm),Absorbance
850.00,0.000400
849.00,0.000378
848.00,-0.000373
847.00,0.000390
846.00,-0.000893
845.00,-0.000709
844.00,0.000446
843.00,-0.001036
842.00,0.000050
841.00,0.000070
840.00,-0.000098
839.00,-0.000690
838.00,-0.000539
837.00,-0.000806
836.00,0.000041
835.00,-0.000179
834.00,-0.000104
833.00,-0.000548
832.00,0.000378
831.00,0.000654
830.00,-0.000035
829.00,-0.000175
828.00,-0.000175
827.00,-0.000361
826.00,-0.000414
825.00,-0.000092
824.00,0.000258
823.00,-0.000452
822.00,-0.000186
821.00,-0.000416
820.00,0.000475
819.00,0.000628
818.00,-0.000015
817.00,-0.000635
816.00,-0.000311
815.00,-0.000221
814.00,0.000835
813.00,0.000450
812.00,0.000308
811.00,-0.000464
810.00,-0.000211
809.00,-0.000931
808.00,0.000044
807.00,-0.001488
806.00,-0.001058
805.00,-0.000390
804.00,0.000189
803.00,0.000785
802.00,-0.000305
801.00,-0.000446
800.00,0.000102
799.00,-0.000458
798.00,0.000145
797.00,0.000106
796.00,0.000238
795.00,0.000270
794.00,0.000622
793.00,-0.000295
792.00,0.000783
791.00,0.000381
790.00,0.000362
789.00,0.000310
788.00,0.000841
787.00,0.000606
786.00,-0.000631
785.00,0.000962
784.00,-0.001544
783.00,0.000184
782.00,0.000789
781.00,-0.000030
780.00,-0.000011
779.00,-0.000133
778.00,-0.000463
777.00,-0.000294
776.00,0.000438
775.00,0.000393
774.00,0.000810
773.00,-0.000657
772.00,-0.001083
771.00,-0.000217
770.00,0.000676
769.00,0.000080
768.00,-0.001166
767.00,0.001099
766.00,-0.000271
765.00,0.000492
764.00,-0.000003
763.00,-0.000368
762.00,0.000250
761.00,0.000424
760.00,0.000272
759.00,-0.000041
758.00,-0.000178
757.00,0.000201
756.00,0.000163
755.00,-0.000484
754.00,-0.001371
753.00,-0.000372
752.00,-0.000429
751.00,0.000136
750.00,-0.000113
749.00,0.000123
748.00,0.000469
747.00,0.000428
746.00,0.000582
745.00,0.000820
744.00,0.000998
743.00,0.000635
742.00,0.000180
741.00,0.000706
740.00,0.000538
739.00,0.000286
738.00,0.000007
737.00,-0.000234
736.00,0.000151
735.00,0.000251
734.00,-0.000588
733.00,0.000548
732.00,0.000312
731.00,0.000021
730.00,0.000292
729.00,-0.000532
728.00,0.000692
727.00,-0.000143
726.00,0.000064
725.00,-0.000061
724.00,0.000351
723.00,0.000278
722.00,0.000482
721.00,0.000132
720.00,0.000069
719.00,0.000051
718.00,0.000340
717.00,0.000522
716.00,0.000854
715.00,0.000069
714.00,0.000474
713.00,0.000683
712.00,0.000748
711.00,0.000724
710.00,0.000843
709.00,0.000157
708.00,0.000595
707.00,0.001105
706.00,0.000567
705.00,-0.000089
704.00,0.000085
703.00,0.000488
702.00,0.000272
701.00,0.000353
700.00,0.000361
699.00,0.000558
698.00,0.000498
697.00,0.000202
696.00,0.000242
695.00,0.000597
694.00,0.000424
693.00,0.000647
692.00,0.000475
691.00,0.000351
690.00,0.000572
689.00,0.000826
688.00,0.001010
687.00,0.000588
686.00,0.000461
685.00,0.000506
684.00,0.000679
683.00,0.000784
682.00,0.000685
681.00,0.000656
680.00,0.000415
679.00,0.000605
678.00,0.000722
677.00,0.000576
676.00,0.000575
675.00,0.000587
674.00,0.000820
673.00,0.000627
672.00,0.000568
671.00,0.000816
670.00,0.000596
669.00,0.000844
668.00,0.000786
667.00,0.000809
666.00,0.000827
665.00,0.000753
664.00,0.000504
663.00,0.000814
662.00,0.000462
661.00,0.000752
660.00,0.000683
659.00,0.000845
658.00,0.000720
657.00,0.000945
656.00,0.001235
655.00,0.000706
654.00,0.001038
653.00,0.000567
652.00,0.000887
651.00,0.000531
650.00,0.000968
649.00,0.000625
648.00,0.001201
647.00,0.000750
646.00,0.001084
645.00,0.001085
644.00,0.000841
643.00,0.000718
642.00,0.001441
641.00,0.001077
640.00,0.000912
639.00,0.001358
638.00,0.001328
637.00,0.001135
636.00,0.000689
635.00,0.001230
634.00,0.000648
633.00,0.000948
632.00,0.001154
631.00,0.001082
630.00,0.001515
629.00,0.001242
628.00,0.001230
627.00,0.001515
626.00,0.001454
625.00,0.001667
624.00,0.001932
623.00,0.001606
622.00,0.002014
621.00,0.001758
620.00,0.001676
619.00,0.001920
618.00,0.002159
617.00,0.002309
616.00,0.002540
615.00,0.002783
614.00,0.002699
613.00,0.003075
612.00,0.003136
611.00,0.003176
610.00,0.003757
609.00,0.004181
608.00,0.004645
607.00,0.004694
606.00,0.005341
605.00,0.005488
604.00,0.005722
603.00,0.006723
602.00,0.007146
601.00,0.008034
600.00,0.009562
599.00,0.009828
598.00,0.010756
597.00,0.011750
596.00,0.013165
595.00,0.014448
594.00,0.016412
593.00,0.017679
592.00,0.019442
591.00,0.021464
590.00,0.024066
589.00,0.026596
588.00,0.029384
587.00,0.032584
586.00,0.035635
585.00,0.039283
584.00,0.043360
583.00,0.047247
582.00,0.051352
581.00,0.055749
580.00,0.060548
579.00,0.066086
578.00,0.071712
577.00,0.077464
576.00,0.083025
575.00,0.089173
574.00,0.095230
573.00,0.102109
572.00,0.108072
571.00,0.114410
570.00,0.120758
569.00,0.126796
568.00,0.133428
567.00,0.139944
566.00,0.145935
565.00,0.151814
564.00,0.157413
563.00,0.162549
562.00,0.168056
561.00,0.172050
560.00,0.176602
559.00,0.180399
558.00,0.183696
557.00,0.186898
556.00,0.190144
555.00,0.192165
554.00,0.194295
553.00,0.196103
552.00,0.197711
551.00,0.198971
550.00,0.200032
549.00,0.201097
548.00,0.201815
547.00,0.202547
546.00,0.203179
545.00,0.203843
544.00,0.204165
543.00,0.204693
542.00,0.205536
541.00,0.205809
540.00,0.206539
539.00,0.207110
538.00,0.207938
537.00,0.208806
536.00,0.209588
535.00,0.210473
534.00,0.211431
533.00,0.212550
532.00,0.213541
531.00,0.214591
530.00,0.215611
529.00,0.216427
528.00,0.217561
527.00,0.218082
526.00,0.219040
525.00,0.219564
524.00,0.219912
523.00,0.220555
522.00,0.220626
521.00,0.220625
520.00,0.220563
519.00,0.220430
518.00,0.220044
517.00,0.219507
516.00,0.218664
515.00,0.217873
514.00,0.217208
513.00,0.215941
512.00,0.214846
511.00,0.213925
510.00,0.212584
509.00,0.211447
508.00,0.210171
507.00,0.209172
506.00,0.207776
505.00,0.206949
504.00,0.205672
503.00,0.205025
502.00,0.204233
501.00,0.203433
500.00,0.202469
499.00,0.201973
498.00,0.201347
497.00,0.200970
496.00,0.200515
495.00,0.200323
494.00,0.200297
493.00,0.200024
492.00,0.199973
491.00,0.199718
490.00,0.199761
489.00,0.199798
488.00,0.199613
487.00,0.199644
486.00,0.199699
485.00,0.199884
484.00,0.199934
483.00,0.199910
482.00,0.200015
481.00,0.200153
480.00,0.200108
479.00,0.200344
478.00,0.200468
477.00,0.200286
476.00,0.200560
475.00,0.200656
474.00,0.200734
473.00,0.200621
472.00,0.201067
471.00,0.201026
470.00,0.201248
469.00,0.201098
468.00,0.201303
467.00,0.201289
466.00,0.201237
465.00,0.201569
464.00,0.201450
463.00,0.201350
462.00,0.201643
461.00,0.201345
460.00,0.201313
459.00,0.201273
458.00,0.201103
457.00,0.200937
456.00,0.200681
455.00,0.200400
454.00,0.200144
453.00,0.199804
452.00,0.199448
451.00,0.199019
450.00,0.198653
449.00,0.198331
448.00,0.197784
447.00,0.197112
446.00,0.196750
445.00,0.196288
444.00,0.195649
443.00,0.195080
442.00,0.194475
441.00,0.193903
440.00,0.193284
439.00,0.192558
438.00,0.191945
437.00,0.191437
436.00,0.190738
435.00,0.190213
434.00,0.189684
433.00,0.188963
432.00,0.188226
431.00,0.187537
430.00,0.186894
429.00,0.186270
428.00,0.185634
427.00,0.184976
426.00,0.184289
425.00,0.183783
424.00,0.183093
423.00,0.182485
422.00,0.181881
421.00,0.181208
420.00,0.180411
419.00,0.179796
418.00,0.179175
417.00,0.178303
416.00,0.177486
415.00,0.176678
414.00,0.175794
413.00,0.174799
412.00,0.174087
411.00,0.173071
410.00,0.172228
409.00,0.171130
408.00,0.170066
407.00,0.168936
406.00,0.167792
405.00,0.166595
404.00,0.165467
403.00,0.163937
402.00,0.162694
401.00,0.161179
400.00,0.160001
399.00,0.158675
398.00,0.156837
397.00,0.155159
396.00,0.153317
395.00,0.151768
394.00,0.150248
393.00,0.148393
392.00,0.146373
391.00,0.144410
390.00,0.142363
389.00,0.140367
388.00,0.138463
387.00,0.136474
386.00,0.134334
385.00,0.131970
384.00,0.129585
383.00,0.127625
382.00,0.125404
381.00,0.123255
380.00,0.120976
379.00,0.118794
378.00,0.116312
377.00,0.114142
376.00,0.111921
375.00,0.109959
374.00,0.107409
373.00,0.105080
372.00,0.103039
371.00,0.100866
370.00,0.098459
369.00,0.096208
368.00,0.093892
367.00,0.091897
366.00,0.090053
365.00,0.087739
364.00,0.085851
363.00,0.083959
362.00,0.081868
361.00,0.079896
360.00,0.078044
359.00,0.076255
358.00,0.074357
357.00,0.072609
356.00,0.070674
355.00,0.068979
354.00,0.067368
353.00,0.065792
352.00,0.064191
351.00,0.062516
350.00,0.061344


5
1/1/2006 1:17:36 PM
Wavelength (nm),Absorbance
850.00,0.000464
849.00,-0.000404
848.00,-0.000907
847.00,-0.000165
846.00,-0.000269
845.00,-0.000015
844.00,0.000396
843.00,0.000037
842.00,0.000369
841.00,-0.000156
840.00,-0.000437
839.00,-0.000669
838.00,-0.000806
837.00,-0.000866
836.00,-0.000267
835.00,-0.000357
834.00,-0.000054
833.00,-0.001623
832.00,-0.000261
831.00,0.000692
830.00,-0.000484
829.00,-0.000329
828.00,-0.000158
827.00,-0.000270
826.00,-0.000535
825.00,-0.000348
824.00,-0.000151
823.00,-0.000564
822.00,0.000084
821.00,-0.000306
820.00,0.000068
819.00,-0.000339
818.00,0.000153
817.00,0.000002
816.00,0.000074
815.00,-0.000588
814.00,0.000550
813.00,0.001385
812.00,-0.000271
811.00,-0.000363
810.00,-0.000353
809.00,-0.000614
808.00,-0.000259
807.00,0.000040
806.00,-0.001682
805.00,-0.000068
804.00,0.001214
803.00,0.001263
802.00,-0.000043
801.00,-0.000121
800.00,0.000191
799.00,-0.000497
798.00,0.000179
797.00,0.000020
796.00,0.000143
795.00,-0.000879
794.00,0.001078
793.00,0.000132
792.00,0.001020
791.00,0.000581
790.00,-0.000550
789.00,0.001121
788.00,0.000924
787.00,0.000747
786.00,-0.001475
785.00,0.000855
784.00,-0.000946
783.00,-0.000605
782.00,-0.000003
781.00,-0.000141
780.00,0.000015
779.00,-0.000825
778.00,-0.000593
777.00,0.000565
776.00,0.000508
775.00,-0.000204
774.00,-0.000284
773.00,-0.000370
772.00,-0.000886
771.00,-0.000778
770.00,0.000728
769.00,-0.000184
768.00,-0.000524
767.00,-0.000058
766.00,-0.000741
765.00,0.000101
764.00,-0.000547
763.00,-0.000554
762.00,0.000021
761.00,-0.000199
760.00,-0.000732
759.00,-0.000101
758.00,-0.000189
757.00,-0.000308
756.00,-0.000916
755.00,-0.000857
754.00,-0.001575
753.00,0.000152
752.00,-0.000270
751.00,-0.000353
750.00,-0.000427
749.00,-0.000617
748.00,-0.000094
747.00,-0.000322
746.00,-0.000042
745.00,0.000490
744.00,0.000219
743.00,0.001013
742.00,-0.000251
741.00,-0.000742
740.00,-0.000225
739.00,0.000305
738.00,-0.000537
737.00,-0.000644
736.00,0.000110
735.00,0.000246
734.00,-0.000248
733.00,-0.000096
732.00,-0.000191
731.00,-0.000716
730.00,-0.000324
729.00,-0.000501
728.00,0.000454
727.00,0.000151
726.00,-0.000102
725.00,0.000069
724.00,-0.000379
723.00,-0.000391
722.00,0.000468
721.00,0.000144
720.00,0.000163
719.00,-0.000029
718.00,0.000550
717.00,-0.000181
716.00,-0.000179
715.00,-0.000162
714.00,0.000149
713.00,0.000217
712.00,0.000727
711.00,0.000190
710.00,0.000685
709.00,-0.000504
708.00,-0.000008
707.00,0.000079
706.00,0.000022
705.00,-0.000173
704.00,-0.000755
703.00,0.000255
702.00,-0.000392
701.00,0.000027
700.00,-0.000047
699.00,0.000267
698.00,0.000052
697.00,-0.000236
696.00,-0.000080
695.00,0.000107
694.00,-0.000079
693.00,-0.000108
692.00,-0.000271
691.00,0.000255
690.00,0.000048
689.00,0.000179
688.00,0.000137
687.00,-0.000051
686.00,0.000087
685.00,0.000232
684.00,0.000085
683.00,-0.000004
682.00,0.000130
681.00,0.000040
680.00,0.000022
679.00,-0.000077
678.00,0.000072
677.00,0.000225
676.00,0.000165
675.00,0.000245
674.00,0.000304
673.00,0.000014
672.00,0.000058
671.00,0.000394
670.00,0.000228
669.00,0.000514
668.00,0.000359
667.00,0.000370
666.00,0.000331
665.00,0.000716
664.00,0.000114
663.00,0.000313
662.00,-0.000226
661.00,0.000009
660.00,-0.000070
659.00,0.000197
658.00,0.000269
657.00,0.000760
656.00,0.000433
655.00,-0.000248
654.00,0.000116
653.00,0.000412
652.00,0.000228
651.00,-0.000142
650.00,0.000286
649.00,0.000510
648.00,0.000901
647.00,0.000159
646.00,0.000629
645.00,0.000064
644.00,0.000220
643.00,0.000285
642.00,0.000506
641.00,0.000542
640.00,0.000560
639.00,0.001380
638.00,0.000660
637.00,0.000595
636.00,-0.000124
635.00,0.000407
634.00,0.000293
633.00,0.000862
632.00,0.000882
631.00,0.000441
630.00,0.000734
629.00,0.000633
628.00,0.000503
627.00,0.000809
626.00,0.000772
625.00,0.000841
624.00,0.000760
623.00,0.000744
622.00,0.001110
621.00,0.001202
620.00,0.001312
619.00,0.001047
618.00,0.001135
617.00,0.001423
616.00,0.001585
615.00,0.001526
614.00,0.001505
613.00,0.001828
612.00,0.001918
611.00,0.001935
610.00,0.002239
609.00,0.002499
608.00,0.002581
607.00,0.002632
606.00,0.003307
605.00,0.003126
604.00,0.003585
603.00,0.003878
602.00,0.003936
601.00,0.004604
600.00,0.005282
599.00,0.005562
598.00,0.006385
597.00,0.007006
596.00,0.007703
595.00,0.008374
594.00,0.009248
593.00,0.009891
592.00,0.011264
591.00,0.012241
590.00,0.013894
589.00,0.014815
588.00,0.016716
587.00,0.018145
586.00,0.020069
585.00,0.022183
584.00,0.024191
583.00,0.026482
582.00,0.028475
581.00,0.030974
580.00,0.033604
579.00,0.036660
578.00,0.039731
577.00,0.043079
576.00,0.046035
575.00,0.049293
574.00,0.052755
573.00,0.056422
572.00,0.059858
571.00,0.063289
570.00,0.066823
569.00,0.070315
568.00,0.073704
567.00,0.077506
566.00,0.080404
565.00,0.084027
564.00,0.086990
563.00,0.089889
562.00,0.092837
561.00,0.095164
560.00,0.097331
559.00,0.099881
558.00,0.101351
557.00,0.103301
556.00,0.105027
555.00,0.106300
554.00,0.107332
553.00,0.108746
552.00,0.109443
551.00,0.110216
550.00,0.110947
549.00,0.111734
548.00,0.111818
547.00,0.112140
546.00,0.112890
545.00,0.113232
544.00,0.113418
543.00,0.114013
542.00,0.114391
541.00,0.114613
540.00,0.115324
539.00,0.115602
538.00,0.116368
537.00,0.117016
536.00,0.117591
535.00,0.118242
534.00,0.118881
533.00,0.119849
532.00,0.120672
531.00,0.121500
530.00,0.122371
529.00,0.123027
528.00,0.124094
527.00,0.124680
526.00,0.125574
525.00,0.126170
524.00,0.126903
523.00,0.127729
522.00,0.128377
521.00,0.128969
520.00,0.129429
519.00,0.130022
518.00,0.130439
517.00,0.130922
516.00,0.130993
515.00,0.131422
514.00,0.131921
513.00,0.131894
512.00,0.132196
511.00,0.132516
510.00,0.132990
509.00,0.133548
508.00,0.133830
507.00,0.134458
506.00,0.134956
505.00,0.135606
504.00,0.136055
503.00,0.137250
502.00,0.138158
501.00,0.139058
500.00,0.140292
499.00,0.141484
498.00,0.142705
497.00,0.143967
496.00,0.145442
495.00,0.147056
494.00,0.148950
493.00,0.150643
492.00,0.152227
491.00,0.153659
490.00,0.155819
489.00,0.157746
488.00,0.159619
487.00,0.161499
486.00,0.163497
485.00,0.165546
484.00,0.167567
483.00,0.169532
482.00,0.171626
481.00,0.173726
480.00,0.175436
479.00,0.177338
478.00,0.179608
477.00,0.181415
476.00,0.183579
475.00,0.185595
474.00,0.187373
473.00,0.189138
472.00,0.191299
471.00,0.192896
470.00,0.194738
469.00,0.196428
468.00,0.198006
467.00,0.199590
466.00,0.201074
465.00,0.202869
464.00,0.204223
463.00,0.205799
462.00,0.207016
461.00,0.208280
460.00,0.209361
459.00,0.210530
458.00,0.211574
457.00,0.212394
456.00,0.213282
455.00,0.214120
454.00,0.214870
453.00,0.215545
452.00,0.216233
451.00,0.216528
450.00,0.216965
449.00,0.217480
448.00,0.217745
447.00,0.217934
446.00,0.218205
445.00,0.218365
444.00,0.218380
443.00,0.218521
442.00,0.218500
441.00,0.218405
440.00,0.218375
439.00,0.218242
438.00,0.218042
437.00,0.217967
436.00,0.217558
435.00,0.217480
434.00,0.217250
433.00,0.216931
432.00,0.216654
431.00,0.216220
430.00,0.216029
429.00,0.215495
428.00,0.215074
427.00,0.214804
426.00,0.214262
425.00,0.213796
424.00,0.213409
423.00,0.212914
422.00,0.212571
421.00,0.211907
420.00,0.211230
419.00,0.210742
418.00,0.210099
417.00,0.209315
416.00,0.208575
415.00,0.207825
414.00,0.206989
413.00,0.206131
412.00,0.205291
411.00,0.204299
410.00,0.203424
409.00,0.202092
408.00,0.200830
407.00,0.199814
406.00,0.198687
405.00,0.197408
404.00,0.195829
403.00,0.194314
402.00,0.192861
401.00,0.191136
400.00,0.189839
399.00,0.187937
398.00,0.186071
397.00,0.184101
396.00,0.181939
395.00,0.180106
394.00,0.178125
393.00,0.175905
392.00,0.173702
391.00,0.171372
390.00,0.168678
389.00,0.166554
388.00,0.164015
387.00,0.161608
386.00,0.158836
385.00,0.156114
384.00,0.153550
383.00,0.150938
382.00,0.148371
381.00,0.145773
380.00,0.142552
379.00,0.139965
378.00,0.137060
377.00,0.134344
376.00,0.131570
375.00,0.128913
374.00,0.125681
373.00,0.122803
372.00,0.120093
371.00,0.117436
370.00,0.114697
369.00,0.111891
368.00,0.108858
367.00,0.106210
366.00,0.103706
365.00,0.100929
364.00,0.098523
363.00,0.095819
362.00,0.093304
361.00,0.090799
360.00,0.088328
359.00,0.085868
358.00,0.083243
357.00,0.081023
356.00,0.078629
355.00,0.076359
354.00,0.074130
353.00,0.072310
352.00,0.070337
351.00,0.068106
350.00,0.065996
